,Ethyl acetate Methyl salicylate ,
Raman shift [1/cm],Intensity,
2909.174,0.24426,
2907.782,0.16867,
2906.389,0.18114,
2904.997,0.19081,
2903.605,0.17744,
2902.212,0.15884,
2900.820,0.17504,
2899.428,0.16627,
2898.035,0.13485,
2896.643,0.14653,
2895.251,0.13916,
2893.858,0.13384,
2892.466,0.12879,
2891.074,0.064869,
2889.681,0.14537,
2888.289,0.13451,
2886.897,0.10182,
2885.504,0.14143,
2884.112,0.097732,
2882.720,0.11072,
2881.327,0.13352,
2879.935,0.11269,
2878.543,0.14369,
2877.150,0.11964,
2875.758,0.13888,
2874.366,0.091224,
2872.973,0.17179,
2871.581,0.07256,
2870.189,0.090684,
2868.796,0.082207,
2867.404,0.066371,
2866.012,0.080526,
2864.619,0.056504,
2863.227,0.036942,
2861.835,0.064037,
2860.442,0.056193,
2859.050,0.035815,
2857.658,0.077283,
2856.265,0.072777,
2854.873,0.080966,
2853.481,0.070265,
2852.088,0.062709,
2850.696,0.10919,
2849.304,0.054607,
2847.911,0.051102,
2846.519,0.086889,
2845.127,0.049681,
2843.734,0.065563,
2842.342,0.024318,
2840.950,-0.015181,
2839.557,0.043848,
2838.165,0.020074,
2836.773,0.038719,
2835.380,0.044203,
2833.988,0.029601,
2832.596,0.038937,
2831.203,0.019093,
2829.811,0.062882,
2828.419,0.04088,
2827.027,0.012911,
2825.634,0.028036,
2824.242,0.019012,
2822.850,0.010325,
2821.457,0.031481,
2820.065,0.014935,
2818.673,0.028706,
2817.280,0.022098,
2815.888,0.012184,
2814.496,0.042458,
2813.103,0.0065701,
2811.711,0.016704,
2810.319,0.035117,
2808.926,0.049662,
2807.534,0.031696,
2806.142,-0.015421,
2804.749,0.057201,
2803.357,0.02026,
2801.965,0.0062345,
2800.572,0.035117,
2799.180,-0.00094846,
2797.788,0.022075,
2796.395,0.018169,
2795.003,0.039579,
2793.611,0.033149,
2792.218,0.037823,
2790.826,0.01452,
2789.434,-0.0051852,
2788.041,0.026691,
2786.649,0.027179,
2785.257,0.038765,
2783.864,0.035916,
2782.472,0.0024783,
2781.080,0.059296,
2779.687,0.0373,
2778.295,-0.003164,
2776.903,-0.0037906,
2775.510,0.010997,
2774.118,0.024939,
2772.726,0.019639,
2771.333,0.040419,
2769.941,0.01243,
2768.549,0.01812,
2767.156,0.020709,
2765.764,0.02127,
2764.372,0.015228,
2762.979,0.0018646,
2761.587,0.017752,
2760.195,0.0096831,
2758.802,0.041747,
2757.410,0.027515,
2756.018,0.012306,
2754.625,0.013586,
2753.233,0.030508,
2751.841,0.01812,
2750.448,0.016821,
2749.056,0.038206,
2747.664,0.012611,
2746.272,0.0012754,
2744.879,0.028258,
2743.487,0.0035853,
2742.095,0.015892,
2740.702,0.019878,
2739.310,0.060634,
2737.918,0.018595,
2736.525,0.034581,
2735.133,-0.0034097,
2733.741,0.041639,
2732.348,0.027339,
2730.956,0.012794,
2729.564,0.025453,
2728.171,0.025867,
2726.779,0.052948,
2725.387,0.0021837,
2723.994,0.025901,
2722.602,0.027154,
2721.210,0.04581,
2719.817,0.031723,
2718.425,0.018723,
2717.033,0.025717,
2715.640,-0.014398,
2714.248,0.035287,
2712.856,0.018048,
2711.463,0.040539,
2710.071,0.0068218,
2708.679,0.019222,
2707.286,0.015142,
2705.894,0.017471,
2704.502,0.020055,
2703.109,0.013996,
2701.717,0.009479,
2700.325,0.026178,
2698.932,0.004685,
2697.540,-0.027608,
2696.148,0.017614,
2694.755,-0.00082292,
2693.363,0.026865,
2691.971,0.0047199,
2690.578,0.036317,
2689.186,-0.017626,
2687.794,0.016811,
2686.401,0.023094,
2685.009,0.0055376,
2683.617,0.009069,
2682.224,-0.0033776,
2680.832,-0.0013887,
2679.440,-0.0059696,
2678.047,0.015894,
2676.655,0.0070103,
2675.263,0.013285,
2673.870,-0.0007572,
2672.478,0.010361,
2671.086,0.0054409,
2669.693,0.0153,
2668.301,-0.010666,
2666.909,0.0017351,
2665.517,-0.018403,
2664.124,0.005519,
2662.732,-0.017318,
2661.340,0.0044592,
2659.947,-0.01754,
2658.555,0.0051608,
2657.163,0.0061932,
2655.770,0.018964,
2654.378,-0.0053958,
2652.986,0.0056681,
2651.593,0.0096437,
2650.201,0.003301,
2648.809,-0.0038209,
2647.416,-0.011788,
2646.024,0.0025105,
2644.632,-0.0061225,
2643.239,0.017563,
2641.847,0.0030994,
2640.455,0.017442,
2639.062,0.025165,
2637.670,0.014587,
2636.278,0.001377,
2634.885,0.017461,
2633.493,-0.0026243,
2632.101,0.017258,
2630.708,0.0024346,
2629.316,0.029809,
2627.924,0.017977,
2626.531,0.015566,
2625.139,0.001139,
2623.747,0.033439,
2622.354,-0.005449,
2620.962,0.022609,
2619.570,0.02465,
2618.177,0.021187,
2616.785,-0.013213,
2615.393,0.033207,
2614.000,-0.0046967,
2612.608,0.024323,
2611.216,0.00050631,
2609.823,0.021668,
2608.431,-0.0022005,
2607.039,0.016122,
2605.646,0.017373,
2604.254,0.045415,
2602.862,-0.0039933,
2601.469,0.0005029,
2600.077,0.0039998,
2598.685,0.017123,
2597.292,0.013781,
2595.900,0.016627,
2594.508,0.011097,
2593.115,0.016017,
2591.723,0.00084805,
2590.331,0.020071,
2588.938,0.00076767,
2587.546,-0.0047566,
2586.154,0.0093038,
2584.762,0.028179,
2583.369,0.0034112,
2581.977,0.029491,
2580.585,-0.019253,
2579.192,0.0059324,
2577.800,-0.011299,
2576.408,0.018206,
2575.015,0.0096551,
2573.623,0.018206,
2572.231,0.013411,
2570.838,0.00050449,
2569.446,0.0087067,
2568.054,0.0087165,
2566.661,0.00087477,
2565.269,0.0081098,
2563.877,0.0025548,
2562.484,0.0025938,
2561.092,-0.010912,
2559.700,-0.0033652,
2558.307,0.011179,
2556.915,-0.0046502,
2555.523,0.0035985,
2554.130,-0.0048602,
2552.738,0.0067248,
2551.346,-0.0057665,
2549.953,0.012165,
2548.561,0.010323,
2547.169,0.016962,
2545.776,0.011839,
2544.384,0.026157,
2542.992,-0.00016593,
2541.599,0.02059,
2540.207,-0.0039531,
2538.815,0.012585,
2537.422,0.014526,
2536.030,0.0095984,
2534.638,0.0084655,
2533.245,0.011819,
2531.853,0.0067943,
2530.461,0.0049521,
2529.068,-0.0028812,
2527.676,0.015896,
2526.284,0.037026,
2524.891,0.0074217,
2523.499,0.0096356,
2522.107,0.016169,
2520.714,0.011041,
2519.322,-0.019649,
2517.930,0.017631,
2516.537,0.013521,
2515.145,0.014658,
2513.753,0.0016858,
2512.360,0.018043,
2510.968,0.00074635,
2509.576,0.010877,
2508.183,0.0057165,
2506.791,0.0066991,
2505.399,0.0052234,
2504.007,0.013264,
2502.614,0.012569,
2501.222,0.0031805,
2499.830,0.0069404,
2498.437,-0.016477,
2497.045,0.0098306,
2495.653,-0.0014696,
2494.260,0.0044696,
2492.868,-8.386E-5,
2491.476,0.021923,
2490.083,-0.0071247,
2488.691,0.014058,
2487.299,-0.0036856,
2485.906,-0.00059444,
2484.514,-0.0010624,
2483.122,-0.0023024,
2481.729,0.021114,
2480.337,-4.3324E-5,
2478.945,0.019483,
2477.552,-0.014643,
2476.160,0.030005,
2474.768,0.0066243,
2473.375,0.005951,
2471.983,-0.014373,
2470.591,0.010603,
2469.198,0.0070116,
2467.806,0.0033486,
2466.414,0.010728,
2465.021,0.012927,
2463.629,0.00082881,
2462.237,0.0074956,
2460.844,0.014594,
2459.452,-0.0066538,
2458.060,0.016619,
2456.667,-0.0061656,
2455.275,0.024605,
2453.883,0.0012944,
2452.490,-0.0013872,
2451.098,0.0093781,
2449.706,0.0081244,
2448.313,0.02977,
2446.921,0.010244,
2445.529,-0.0022754,
2444.136,0.0071159,
2442.744,0.01564,
2441.352,0.013715,
2439.959,-0.0094438,
2438.567,0.0063172,
2437.175,-0.0059037,
2435.782,0.0079515,
2434.390,-0.0076763,
2432.998,0.01438,
2431.605,-0.00021872,
2430.213,0.015378,
2428.821,-0.0033697,
2427.428,-0.0029456,
2426.036,0.0084725,
2424.644,-6.4686E-5,
2423.252,0.0071493,
2421.859,-0.00071737,
2420.467,0.034745,
2419.075,0.007284,
2417.682,0.015458,
2416.290,0.0074299,
2414.898,0.012277,
2413.505,0.0025115,
2412.113,-0.0033994,
2410.721,0.020234,
2409.328,0.0059979,
2407.936,0.0122,
2406.544,-0.004778,
2405.151,0.0068,
2403.759,-0.010352,
2402.367,0.0038524,
2400.974,0.020757,
2399.582,4.476E-5,
2398.190,0.0092643,
2396.797,0.0020263,
2395.405,0.0072463,
2394.013,-0.0019685,
2392.620,0.0055142,
2391.228,0.021012,
2389.836,-0.0058781,
2388.443,0.02058,
2387.051,0.0064576,
2385.659,0.021746,
2384.266,-0.0019988,
2382.874,0.0086472,
2381.482,0.0031685,
2380.089,0.0012134,
2378.697,0.0028166,
2377.305,0.0030113,
2375.912,0.0022559,
2374.520,0.008707,
2373.128,0.0060028,
2371.735,0.0072777,
2370.343,0.0058373,
2368.951,0.0088401,
2367.558,-0.00018803,
2366.166,0.0019113,
2364.774,-0.0072125,
2363.381,0.0023484,
2361.989,0.010265,
2360.597,0.0014897,
2359.204,0.0048229,
2357.812,-0.004681,
2356.420,0.0046867,
2355.027,0.0062928,
2353.635,0.015565,
2352.243,0.0078354,
2350.850,0.0013893,
2349.458,0.012417,
2348.066,0.0049663,
2346.673,0.01941,
2345.281,0.005486,
2343.889,0.0147,
2342.497,0.00061695,
2341.104,-0.0036208,
2339.712,0.010421,
2338.320,0.007098,
2336.927,0.02914,
2335.535,0.0030244,
2334.143,-0.0018972,
2332.750,-0.0010978,
2331.358,0.0031931,
2329.966,0.020765,
2328.573,-0.006842,
2327.181,0.008317,
2325.789,-0.0020273,
2324.396,-0.004153,
2323.004,0.0048602,
2321.612,0.0046851,
2320.219,0.0011423,
2318.827,-0.0046927,
2317.435,0.0085846,
2316.042,0.0014644,
2314.650,0.012932,
2313.258,0.009672,
2311.865,0.0041864,
2310.473,0.011355,
2309.081,-0.0013941,
2307.688,0.0082735,
2306.296,0.010616,
2304.904,0.007435,
2303.511,0.0095872,
2302.119,-0.0080962,
2300.727,0.0072889,
2299.334,0.0037816,
2297.942,-0.0004628,
2296.550,0.009587,
2295.157,0.0037939,
2293.765,0.010757,
2292.373,0.0048169,
2290.980,-0.010411,
2289.588,0.0080152,
2288.196,0.0030475,
2286.803,0.020478,
2285.411,-0.000963,
2284.019,0.0017764,
2282.626,0.0057625,
2281.234,-0.0007476,
2279.842,0.0099014,
2278.449,-0.0021276,
2277.057,-0.0028117,
2275.665,-0.0029432,
2274.272,-0.0055175,
2272.880,0.019392,
2271.488,0.0059769,
2270.095,0.01703,
2268.703,-0.0055689,
2267.311,-0.0051332,
2265.919,0.0091856,
2264.526,0.0057558,
2263.134,0.013263,
2261.742,-0.0030917,
2260.349,0.0027432,
2258.957,0.0076728,
2257.565,-0.0039287,
2256.172,0.0024864,
2254.780,0.003649,
2253.388,0.0058634,
2251.995,0.0088546,
2250.603,0.0092962,
2249.211,0.025312,
2247.818,6.1304E-5,
2246.426,0.0052348,
2245.034,0.0029699,
2243.641,-0.0098908,
2242.249,0.003719,
2240.857,0.0094019,
2239.464,0.0022166,
2238.072,0.0055375,
2236.680,0.0046192,
2235.287,0.016673,
2233.895,0.00056691,
2232.503,0.0050649,
2231.110,0.0042821,
2229.718,-0.004725,
2228.326,0.0076154,
2226.933,-2.0108E-8,
2225.541,0.0026235,
2224.149,-0.00052936,
2222.756,0.0025432,
2221.364,0.019342,
2219.972,-0.00021301,
2218.579,0.0058466,
2217.187,0.0079864,
2215.795,-0.0070321,
2214.402,0.0090332,
2213.010,-0.0012115,
2211.618,0.00073261,
2210.225,0.014106,
2208.833,-0.0058667,
2207.441,0.0070829,
2206.048,0.0053671,
2204.656,0.0094844,
2203.264,0.0057671,
2201.871,0.0022162,
2200.479,0.0085006,
2199.087,0.0077321,
2197.694,-0.0013412,
2196.302,0.0059078,
2194.910,-0.0016757,
2193.517,0.011564,
2192.125,0.008395,
2190.733,-0.00061249,
2189.340,0.0083978,
2187.948,0.006264,
2186.556,0.0032873,
2185.164,0.00077868,
2183.771,-0.010479,
2182.379,0.0059274,
2180.987,-0.0066951,
2179.594,0.0051463,
2178.202,0.0031988,
2176.810,0.0046528,
2175.417,0.01516,
2174.025,0.0051941,
2172.633,0.0044032,
2171.240,0.0029296,
2169.848,-0.00038135,
2168.456,0.0057447,
2167.063,-0.0048819,
2165.671,-0.00069607,
2164.279,0.0094228,
2162.886,-0.0021664,
2161.494,0.014773,
2160.102,6.8212E-5,
2158.709,0.0017685,
2157.317,0.013859,
2155.925,-0.0010539,
2154.532,0.003447,
2153.140,0.0041611,
2151.748,-0.00086477,
2150.355,0.0054034,
2148.963,0.0041516,
2147.571,0.00080497,
2146.178,0.010847,
2144.786,0.0014663,
2143.394,-0.0007568,
2142.001,0.0088247,
2140.609,0.0099201,
2139.217,0.0090251,
2137.824,0.0044185,
2136.432,0.0077881,
2135.040,0.010475,
2133.647,0.0061832,
2132.255,0.014388,
2130.863,-0.0014889,
2129.470,0.008252,
2128.078,0.014242,
2126.686,-0.0025658,
2125.293,-0.0065245,
2123.901,0.0037828,
2122.509,0.00012443,
2121.116,0.010809,
2119.724,0.0016494,
2118.332,-0.0040336,
2116.939,-0.00021257,
2115.547,-0.0051742,
2114.155,0.0070949,
2112.762,0.0099874,
2111.370,0.0052661,
2109.978,0.0057965,
2108.585,-0.00062919,
2107.193,0.0014929,
2105.801,0.0015128,
2104.409,-0.01041,
2103.016,0.0045983,
2101.624,-0.0014297,
2100.232,-0.0022863,
2098.839,0.0077503,
2097.447,0.0074693,
2096.055,0.0066695,
2094.662,0.019936,
2093.270,0.0020902,
2091.878,0.0062786,
2090.485,-0.00096913,
2089.093,-0.0042296,
2087.701,0.01165,
2086.308,-0.0071973,
2084.916,0.0013411,
2083.524,0.01009,
2082.131,0.00097104,
2080.739,0.001993,
2079.347,0.010234,
2077.954,0.0010365,
2076.562,0.01457,
2075.170,0.00021676,
2073.777,-0.0081335,
2072.385,0.0060726,
2070.993,-0.0014382,
2069.600,-0.002811,
2068.208,0.003004,
2066.816,-0.001041,
2065.423,0.0047367,
2064.031,0.0010069,
2062.639,-2.0226E-5,
2061.246,0.017694,
2059.854,0.0011951,
2058.462,0.0072509,
2057.069,0.010057,
2055.677,-0.0039796,
2054.285,-0.00084824,
2052.892,0.0045341,
2051.500,-0.0078549,
2050.108,0.0045466,
2048.715,0.00092998,
2047.323,-0.0034197,
2045.931,0.015279,
2044.538,0.0068243,
2043.146,0.0042328,
2041.754,0.0053012,
2040.361,0.0047323,
2038.969,0.0045547,
2037.577,-0.00029369,
2036.184,-0.0036998,
2034.792,0.01408,
2033.400,-0.0018163,
2032.007,0.0013282,
2030.615,0.011813,
2029.223,0.0022718,
2027.830,0.0074386,
2026.438,0.011839,
2025.046,0.0054122,
2023.654,0.0076839,
2022.261,0.0077704,
2020.869,0.0052572,
2019.477,0.00023571,
2018.084,-0.0024545,
2016.692,-0.0032609,
2015.300,0.012944,
2013.907,0.0031794,
2012.515,0.0085242,
2011.123,0.0081339,
2009.730,0.0013176,
2008.338,0.0027851,
2006.946,0.0053171,
2005.553,0.0036294,
2004.161,0.0063326,
2002.769,-0.0030284,
2001.376,-0.0030387,
1999.984,0.014106,
1998.592,0.0084313,
1997.199,-0.0010389,
1995.807,0.0044846,
1994.415,0.0078147,
1993.022,0.0096223,
1991.630,0.007343,
1990.238,0.0029182,
1988.845,0.010761,
1987.453,0.012403,
1986.061,0.00062374,
1984.668,0.0046814,
1983.276,0.0029933,
1981.884,0.0035326,
1980.491,0.01039,
1979.099,0.001889,
1977.707,0.0039315,
1976.314,0.012222,
1974.922,0.0036764,
1973.530,0.01041,
1972.137,0.0083611,
1970.745,0.0087744,
1969.353,0.010691,
1967.960,0.0065948,
1966.568,-0.0002084,
1965.176,0.011244,
1963.783,0.0077517,
1962.391,-0.0035169,
1960.999,0.0057563,
1959.606,0.0082554,
1958.214,0.0039067,
1956.822,0.0058756,
1955.429,-0.0012876,
1954.037,0.0059635,
1952.645,0.013139,
1951.252,0.00074739,
1949.860,0.0083888,
1948.468,0.019932,
1947.075,0.010071,
1945.683,0.0083793,
1944.291,0.0086433,
1942.899,0.0009674,
1941.506,0.0056973,
1940.114,0.0088795,
1938.722,0.0076535,
1937.329,0.010832,
1935.937,0.0053084,
1934.545,0.0091205,
1933.152,0.011723,
1931.760,0.003672,
1930.368,0.0013536,
1928.975,0.0095761,
1927.583,0.002851,
1926.191,0.0020537,
1924.798,0.015735,
1923.406,0.005865,
1922.014,-0.0016141,
1920.621,0.014301,
1919.229,0.0055227,
1917.837,0.0015095,
1916.444,0.0064356,
1915.052,0.0045519,
1913.660,0.0043006,
1912.267,0.0086057,
1910.875,0.0026758,
1909.483,0.0080932,
1908.090,0.0077041,
1906.698,0.0031008,
1905.306,0.0031321,
1903.913,0.0069635,
1902.521,0.0085836,
1901.129,0.0093687,
1899.736,0.0078048,
1898.344,0.00068799,
1896.952,0.0033331,
1895.559,0.0041248,
1894.167,0.0040942,
1892.775,0.0061006,
1891.382,0.0077844,
1889.990,0.00066809,
1888.598,0.0090603,
1887.205,0.0077627,
1885.813,0.0064787,
1884.421,0.014421,
1883.028,0.005646,
1881.636,0.0086575,
1880.244,0.0062218,
1878.851,0.0060411,
1877.459,0.005797,
1876.067,0.012059,
1874.674,0.0029354,
1873.282,0.0062457,
1871.890,0.0064046,
1870.497,0.0046565,
1869.105,0.0031872,
1867.713,0.0095552,
1866.320,0.0084761,
1864.928,0.00174,
1863.536,0.0046701,
1862.144,-0.0018315,
1860.751,0.003221,
1859.359,0.010486,
1857.967,-0.0021307,
1856.574,0.0025368,
1855.182,0.011258,
1853.790,0.0032829,
1852.397,0.0094044,
1851.005,0.012008,
1849.613,0.0026083,
1848.220,0.0054232,
1846.828,0.0050008,
1845.436,0.00081063,
1844.043,0.0034969,
1842.651,0.0090261,
1841.259,0.0052789,
1839.866,0.011525,
1838.474,0.013398,
1837.082,-0.00068442,
1835.689,0.0034413,
1834.297,0.0097181,
1832.905,0.0030316,
1831.512,0.0029934,
1830.120,0.012402,
1828.728,-0.0010223,
1827.335,0.00078674,
1825.943,0.0099183,
1824.551,0.00875,
1823.158,0.0040273,
1821.766,0.0092643,
1820.374,0.002697,
1818.981,0.0058801,
1817.589,0.010473,
1816.197,0.006132,
1814.804,0.0079647,
1813.412,0.0086464,
1812.020,0.0016462,
1810.627,0.0094167,
1809.235,0.013782,
1807.843,0.0092703,
1806.450,0.0044553,
1805.058,0.0010828,
1803.666,-0.0018798,
1802.273,0.0038677,
1800.881,0.013087,
1799.489,0.006017,
1798.096,0.006938,
1796.704,0.0094837,
1795.312,0.0045751,
1793.919,0.0024127,
1792.527,0.0092599,
1791.135,0.0087289,
1789.742,0.0041703,
1788.350,0.013752,
1786.958,0.0025473,
1785.565,0.0024479,
1784.173,0.01456,
1782.781,0.008209,
1781.389,0.0048964,
1779.996,0.0089613,
1778.604,0.0065875,
1777.212,0.0017175,
1775.819,0.010691,
1774.427,0.0090774,
1773.035,0.0039142,
1771.642,0.010137,
1770.250,0.014447,
1768.858,0.012671,
1767.465,0.016216,
1766.073,0.014767,
1764.681,0.011112,
1763.288,0.012938,
1761.896,0.015127,
1760.504,0.014918,
1759.111,0.018433,
1757.719,0.023329,
1756.327,0.016485,
1754.934,0.018668,
1753.542,0.02889,
1752.150,0.026354,
1750.757,0.034071,
1749.365,0.046062,
1747.973,0.038742,
1746.580,0.040052,
1745.188,0.060461,
1743.796,0.065479,
1742.403,0.066093,
1741.011,0.081331,
1739.619,0.083956,
1738.226,0.092008,
1736.834,0.087631,
1735.442,0.082464,
1734.049,0.080615,
1732.657,0.084848,
1731.265,0.071428,
1729.872,0.053288,
1728.480,0.045585,
1727.088,0.040845,
1725.695,0.033061,
1724.303,0.027404,
1722.911,0.02612,
1721.518,0.025043,
1720.126,0.022487,
1718.734,0.018798,
1717.341,0.014452,
1715.949,0.015229,
1714.557,0.021214,
1713.164,0.018104,
1711.772,0.0097696,
1710.380,0.018998,
1708.987,0.015568,
1707.595,0.011679,
1706.203,0.022651,
1704.811,0.017476,
1703.418,0.01479,
1702.026,0.015143,
1700.634,0.01416,
1699.241,0.011518,
1697.849,0.015995,
1696.457,0.021717,
1695.064,0.020782,
1693.672,0.019995,
1692.280,0.019233,
1690.887,0.016575,
1689.495,0.019722,
1688.103,0.027029,
1686.710,0.027698,
1685.318,0.021404,
1683.926,0.03045,
1682.533,0.029773,
1681.141,0.028637,
1679.749,0.032334,
1678.356,0.03086,
1676.964,0.026956,
1675.572,0.025421,
1674.179,0.0211,
1672.787,0.017243,
1671.395,0.017846,
1670.002,0.016757,
1668.610,0.013547,
1667.218,0.010098,
1665.825,0.024901,
1664.433,0.012638,
1663.041,0.013498,
1661.648,0.013043,
1660.256,0.0098187,
1658.864,0.006675,
1657.471,0.012691,
1656.079,0.011909,
1654.687,0.0074258,
1653.294,0.0094436,
1651.902,0.013702,
1650.510,0.010942,
1649.117,0.0078217,
1647.725,0.014394,
1646.333,0.0086278,
1644.940,0.0070503,
1643.548,0.014354,
1642.156,0.009956,
1640.763,0.0076799,
1639.371,0.015379,
1637.979,0.015338,
1636.586,0.012617,
1635.194,0.014375,
1633.802,0.013142,
1632.409,0.0064338,
1631.017,0.0064837,
1629.625,0.013499,
1628.232,0.0085,
1626.840,0.0072608,
1625.448,0.018139,
1624.056,0.01225,
1622.663,0.011901,
1621.271,0.016841,
1619.879,0.015013,
1618.486,0.011796,
1617.094,0.015822,
1615.702,0.016517,
1614.309,0.0093572,
1612.917,0.015846,
1611.525,0.021036,
1610.132,0.016403,
1608.740,0.016369,
1607.348,0.017647,
1605.955,0.0098613,
1604.563,0.0072034,
1603.171,0.013802,
1601.778,0.01334,
1600.386,0.0094183,
1598.994,0.014416,
1597.601,0.017717,
1596.209,0.0094975,
1594.817,0.011221,
1593.424,0.015621,
1592.032,0.011991,
1590.640,0.010836,
1589.247,0.018149,
1587.855,0.018804,
1586.463,0.014307,
1585.070,0.016312,
1583.678,0.0221,
1582.286,0.016663,
1580.893,0.010703,
1579.501,0.01955,
1578.109,0.013291,
1576.716,0.011769,
1575.324,0.011518,
1573.932,0.009909,
1572.539,0.0081921,
1571.147,0.012434,
1569.755,0.017624,
1568.362,0.011295,
1566.970,0.01269,
1565.578,0.015849,
1564.185,0.011748,
1562.793,0.012087,
1561.401,0.01649,
1560.008,0.01522,
1558.616,0.011838,
1557.224,0.013735,
1555.831,0.016301,
1554.439,0.008683,
1553.047,0.012424,
1551.654,0.013671,
1550.262,0.013551,
1548.870,0.0081572,
1547.477,0.014274,
1546.085,0.015229,
1544.693,0.009604,
1543.301,0.011729,
1541.908,0.020234,
1540.516,0.014151,
1539.124,0.012872,
1537.731,0.015754,
1536.339,0.011392,
1534.947,0.010131,
1533.554,0.016788,
1532.162,0.020044,
1530.770,0.012269,
1529.377,0.0072488,
1527.985,0.019383,
1526.593,0.019117,
1525.200,0.017871,
1523.808,0.021518,
1522.416,0.016661,
1521.023,0.015006,
1519.631,0.019878,
1518.239,0.02133,
1516.846,0.021566,
1515.454,0.015353,
1514.062,0.021865,
1512.669,0.01922,
1511.277,0.016741,
1509.885,0.020069,
1508.492,0.022485,
1507.100,0.019096,
1505.708,0.018406,
1504.315,0.020957,
1502.923,0.023036,
1501.531,0.020061,
1500.138,0.024555,
1498.746,0.025768,
1497.354,0.021649,
1495.961,0.021864,
1494.569,0.031792,
1493.177,0.028409,
1491.784,0.026057,
1490.392,0.030086,
1489.000,0.030519,
1487.607,0.029,
1486.215,0.031382,
1484.823,0.036737,
1483.430,0.035113,
1482.038,0.039254,
1480.646,0.048906,
1479.253,0.043771,
1477.861,0.044621,
1476.469,0.049797,
1475.076,0.053189,
1473.684,0.054728,
1472.292,0.058408,
1470.899,0.065391,
1469.507,0.065145,
1468.115,0.065127,
1466.722,0.071455,
1465.330,0.079891,
1463.938,0.083645,
1462.546,0.083976,
1461.153,0.097164,
1459.761,0.094383,
1458.369,0.094446,
1456.976,0.10158,
1455.584,0.10529,
1454.192,0.10251,
1452.799,0.10336,
1451.407,0.10536,
1450.015,0.10316,
1448.622,0.10305,
1447.230,0.10138,
1445.838,0.096049,
1444.445,0.087568,
1443.053,0.080375,
1441.661,0.085805,
1440.268,0.071456,
1438.876,0.067182,
1437.484,0.069002,
1436.091,0.065875,
1434.699,0.054428,
1433.307,0.0453,
1431.914,0.05979,
1430.522,0.055152,
1429.130,0.044969,
1427.737,0.043237,
1426.345,0.043736,
1424.953,0.041184,
1423.560,0.042501,
1422.168,0.042126,
1420.776,0.036612,
1419.383,0.035402,
1417.991,0.036431,
1416.599,0.037001,
1415.206,0.033421,
1413.814,0.020089,
1412.422,0.027763,
1411.029,0.028731,
1409.637,0.028692,
1408.245,0.030442,
1406.852,0.031091,
1405.460,0.025682,
1404.068,0.024459,
1402.675,0.028337,
1401.283,0.02996,
1399.891,0.028108,
1398.498,0.029079,
1397.106,0.034473,
1395.714,0.026777,
1394.321,0.027574,
1392.929,0.033608,
1391.537,0.03044,
1390.144,0.02558,
1388.752,0.027769,
1387.360,0.033585,
1385.967,0.022847,
1384.575,0.02052,
1383.183,0.021943,
1381.791,0.023351,
1380.398,0.023461,
1379.006,0.023939,
1377.614,0.02849,
1376.221,0.024022,
1374.829,0.020436,
1373.437,0.023107,
1372.044,0.026761,
1370.652,0.021355,
1369.260,0.020502,
1367.867,0.027067,
1366.475,0.02732,
1365.083,0.023605,
1363.690,0.023344,
1362.298,0.03155,
1360.906,0.028011,
1359.513,0.029937,
1358.121,0.029854,
1356.729,0.030313,
1355.336,0.03021,
1353.944,0.025404,
1352.552,0.02671,
1351.159,0.027976,
1349.767,0.023158,
1348.375,0.021187,
1346.982,0.024749,
1345.590,0.024912,
1344.198,0.020797,
1342.805,0.02711,
1341.413,0.027887,
1340.021,0.026523,
1338.628,0.028261,
1337.236,0.030029,
1335.844,0.02588,
1334.451,0.024192,
1333.059,0.02859,
1331.667,0.032157,
1330.274,0.027254,
1328.882,0.027351,
1327.490,0.029263,
1326.097,0.027195,
1324.705,0.024312,
1323.313,0.02254,
1321.920,0.020946,
1320.528,0.018298,
1319.136,0.018451,
1317.743,0.021599,
1316.351,0.022796,
1314.959,0.018494,
1313.566,0.015179,
1312.174,0.019246,
1310.782,0.019277,
1309.389,0.017723,
1307.997,0.019086,
1306.605,0.027221,
1305.212,0.018207,
1303.820,0.020154,
1302.428,0.025617,
1301.036,0.028075,
1299.643,0.023706,
1298.251,0.018895,
1296.859,0.020069,
1295.466,0.019505,
1294.074,0.018051,
1292.682,0.017814,
1291.289,0.020621,
1289.897,0.019534,
1288.505,0.01723,
1287.112,0.018365,
1285.720,0.021572,
1284.328,0.019667,
1282.935,0.018489,
1281.543,0.022146,
1280.151,0.024091,
1278.758,0.023346,
1277.366,0.022335,
1275.974,0.025889,
1274.581,0.025395,
1273.189,0.025912,
1271.797,0.028062,
1270.404,0.029998,
1269.012,0.02488,
1267.620,0.023456,
1266.227,0.025301,
1264.835,0.025501,
1263.443,0.020835,
1262.050,0.019431,
1260.658,0.026147,
1259.266,0.028317,
1257.873,0.027704,
1256.481,0.028097,
1255.089,0.031844,
1253.696,0.032639,
1252.304,0.033377,
1250.912,0.034088,
1249.519,0.033304,
1248.127,0.025446,
1246.735,0.025211,
1245.342,0.024682,
1243.950,0.024362,
1242.558,0.025125,
1241.165,0.02414,
1239.773,0.023589,
1238.381,0.018413,
1236.988,0.013823,
1235.596,0.015537,
1234.204,0.02172,
1232.811,0.017581,
1231.419,0.015738,
1230.027,0.017312,
1228.634,0.019529,
1227.242,0.013476,
1225.850,0.011644,
1224.457,0.012511,
1223.065,0.012733,
1221.673,0.0079227,
1220.281,0.0080039,
1218.888,0.011829,
1217.496,0.012355,
1216.104,0.0086683,
1214.711,0.0062811,
1213.319,0.011105,
1211.927,0.0095898,
1210.534,0.0067272,
1209.142,0.0069526,
1207.750,0.012665,
1206.357,0.0083978,
1204.965,0.0038678,
1203.573,0.0048854,
1202.180,0.014146,
1200.788,0.0098309,
1199.396,0.0085526,
1198.003,0.009272,
1196.611,0.0098298,
1195.219,0.0066635,
1193.826,0.0029198,
1192.434,0.006077,
1191.042,0.0084412,
1189.649,0.0061175,
1188.257,0.0056055,
1186.865,0.012255,
1185.472,0.01015,
1184.080,0.004057,
1182.688,0.0044687,
1181.295,0.011193,
1179.903,0.011494,
1178.511,0.0099286,
1177.118,0.0097042,
1175.726,0.013926,
1174.334,0.010847,
1172.941,0.01046,
1171.549,0.012896,
1170.157,0.016256,
1168.764,0.012687,
1167.372,0.0104,
1165.980,0.012266,
1164.587,0.016224,
1163.195,0.010302,
1161.803,0.011144,
1160.410,0.014219,
1159.018,0.01692,
1157.626,0.01659,
1156.233,0.014363,
1154.841,0.014997,
1153.449,0.014353,
1152.056,0.011239,
1150.664,0.011894,
1149.272,0.015128,
1147.879,0.015359,
1146.487,0.012912,
1145.095,0.011027,
1143.702,0.014552,
1142.310,0.015734,
1140.918,0.014254,
1139.526,0.01114,
1138.133,0.01945,
1136.741,0.018885,
1135.349,0.015928,
1133.956,0.014564,
1132.564,0.019131,
1131.172,0.016292,
1129.779,0.016308,
1128.387,0.021052,
1126.995,0.029572,
1125.602,0.030356,
1124.210,0.03247,
1122.818,0.038374,
1121.425,0.049812,
1120.033,0.050396,
1118.641,0.056537,
1117.248,0.065395,
1115.856,0.073682,
1114.464,0.069028,
1113.071,0.070076,
1111.679,0.069382,
1110.287,0.06416,
1108.894,0.055867,
1107.502,0.052217,
1106.110,0.051385,
1104.717,0.051363,
1103.325,0.047711,
1101.933,0.044801,
1100.540,0.047404,
1099.148,0.050925,
1097.756,0.045209,
1096.363,0.045785,
1094.971,0.043649,
1093.579,0.03908,
1092.186,0.033342,
1090.794,0.030027,
1089.402,0.030798,
1088.009,0.030607,
1086.617,0.024302,
1085.225,0.021386,
1083.832,0.019101,
1082.440,0.017685,
1081.048,0.017153,
1079.655,0.012764,
1078.263,0.016252,
1076.871,0.017935,
1075.478,0.011935,
1074.086,0.015561,
1072.694,0.018276,
1071.301,0.017444,
1069.909,0.012184,
1068.517,0.016053,
1067.124,0.020132,
1065.732,0.020919,
1064.340,0.016831,
1062.948,0.016299,
1061.555,0.018242,
1060.163,0.018618,
1058.771,0.01578,
1057.378,0.021813,
1055.986,0.028369,
1054.594,0.032582,
1053.201,0.032825,
1051.809,0.033958,
1050.417,0.036447,
1049.024,0.037531,
1047.632,0.035267,
1046.240,0.034649,
1044.847,0.037664,
1043.455,0.038157,
1042.063,0.030687,
1040.670,0.028834,
1039.278,0.032586,
1037.886,0.037794,
1036.493,0.039819,
1035.101,0.041561,
1033.709,0.042641,
1032.316,0.041737,
1030.924,0.036568,
1029.532,0.031953,
1028.139,0.030187,
1026.747,0.029335,
1025.355,0.024647,
1023.962,0.020463,
1022.570,0.020627,
1021.178,0.023337,
1019.785,0.019177,
1018.393,0.018399,
1017.001,0.019432,
1015.608,0.021399,
1014.216,0.020748,
1012.824,0.021238,
1011.431,0.023992,
1010.039,0.02949,
1008.647,0.031692,
1007.254,0.032405,
1005.862,0.034946,
1004.470,0.042914,
1003.077,0.045585,
1001.685,0.044705,
1000.293,0.041992,
998.900,0.040451,
997.508,0.036955,
996.116,0.032824,
994.723,0.028821,
993.331,0.027539,
991.939,0.025369,
990.546,0.022541,
989.154,0.019352,
987.762,0.020416,
986.369,0.017926,
984.977,0.01472,
983.585,0.013603,
982.193,0.016376,
980.800,0.014741,
979.408,0.010375,
978.016,0.0088835,
976.623,0.012036,
975.231,0.012421,
973.839,0.0087402,
972.446,0.0090765,
971.054,0.01194,
969.662,0.013534,
968.269,0.010495,
966.877,0.012783,
965.485,0.013454,
964.092,0.012847,
962.700,0.012526,
961.308,0.011663,
959.915,0.011433,
958.523,0.012078,
957.131,0.01164,
955.738,0.0092326,
954.346,0.0080938,
952.954,0.012121,
951.561,0.011854,
950.169,0.011373,
948.777,0.012087,
947.384,0.018844,
945.992,0.016625,
944.600,0.015737,
943.207,0.021857,
941.815,0.025626,
940.423,0.026405,
939.030,0.025308,
937.638,0.02467,
936.246,0.025647,
934.853,0.025332,
933.461,0.022819,
932.069,0.020831,
930.676,0.021617,
929.284,0.022365,
927.892,0.018309,
926.499,0.018344,
925.107,0.020221,
923.715,0.022947,
922.322,0.018085,
920.930,0.019478,
919.538,0.023993,
918.145,0.028427,
916.753,0.022852,
915.361,0.020839,
913.968,0.024172,
912.576,0.021653,
911.184,0.01836,
909.791,0.015612,
908.399,0.015478,
907.007,0.015168,
905.614,0.012646,
904.222,0.0077942,
902.830,0.0081783,
901.438,0.0083643,
900.045,0.0082746,
898.653,0.0076508,
897.261,0.0058303,
895.868,0.0068629,
894.476,0.012062,
893.084,0.0096602,
891.691,0.0066884,
890.299,0.0054227,
888.907,0.01302,
887.514,0.011338,
886.122,0.0092477,
884.730,0.011065,
883.337,0.01188,
881.945,0.0096753,
880.553,0.0057985,
879.160,0.0085129,
877.768,0.013081,
876.376,0.016458,
874.983,0.014914,
873.591,0.012533,
872.199,0.012879,
870.806,0.016616,
869.414,0.016178,
868.022,0.014918,
866.629,0.014674,
865.237,0.02125,
863.845,0.022386,
862.452,0.024074,
861.060,0.03015,
859.668,0.037853,
858.275,0.045094,
856.883,0.051958,
855.491,0.062897,
854.098,0.080234,
852.706,0.10065,
851.314,0.11866,
849.921,0.13413,
848.529,0.14597,
847.137,0.15233,
845.744,0.14768,
844.352,0.13716,
842.960,0.12164,
841.567,0.10888,
840.175,0.092015,
838.783,0.072519,
837.390,0.05272,
835.998,0.042481,
834.606,0.036622,
833.213,0.033297,
831.821,0.02938,
830.429,0.026739,
829.036,0.02587,
827.644,0.017243,
826.252,0.015046,
824.859,0.017841,
823.467,0.01932,
822.075,0.019521,
820.683,0.018994,
819.290,0.018114,
817.898,0.022084,
816.506,0.027251,
815.113,0.032186,
813.721,0.038222,
812.329,0.044403,
810.936,0.050585,
809.544,0.048563,
808.152,0.046609,
806.759,0.044425,
805.367,0.039819,
803.975,0.035029,
802.582,0.030109,
801.190,0.025062,
799.798,0.025191,
798.405,0.026704,
797.013,0.027451,
795.621,0.026897,
794.228,0.029342,
792.836,0.036839,
791.444,0.039535,
790.051,0.041606,
788.659,0.04336,
787.267,0.044963,
785.874,0.043851,
784.482,0.040823,
783.090,0.039531,
781.697,0.035749,
780.305,0.030583,
778.913,0.025429,
777.520,0.023056,
776.128,0.022081,
774.736,0.022013,
773.343,0.016441,
771.951,0.011954,
770.559,0.012658,
769.166,0.014385,
767.774,0.013646,
766.382,0.0088795,
764.989,0.0095332,
763.597,0.011133,
762.205,0.013345,
760.812,0.0097066,
759.420,0.0079492,
758.028,0.008069,
756.635,0.009645,
755.243,0.0085108,
753.851,0.0054727,
752.458,0.0033069,
751.066,0.0069276,
749.674,0.012482,
748.281,0.0096883,
746.889,0.007448,
745.497,0.0063198,
744.104,0.0085979,
742.712,0.0080324,
741.320,0.0069781,
739.928,0.0078409,
738.535,0.0085033,
737.143,0.0077646,
735.751,0.0036103,
734.358,0.002294,
732.966,0.0029117,
731.574,0.0061694,
730.181,0.0044403,
728.789,0.0027122,
727.397,0.0028423,
726.004,0.00738,
724.612,0.0097884,
723.220,0.0075236,
721.827,0.0052589,
720.435,0.0047561,
719.043,0.0068801,
717.650,0.0035805,
716.258,0.002857,
714.866,0.0063875,
713.473,0.0074333,
712.081,0.0077574,
710.689,0.0073938,
709.296,0.0066143,
707.904,0.0057375,
706.512,0.0047714,
705.119,0.0063874,
703.727,0.0070565,
702.335,0.006477,
700.942,0.0087179,
699.550,0.0086599,
698.158,0.0058374,
696.765,0.0054898,
695.373,0.0062466,
693.981,0.0081691,
692.588,0.0078322,
691.196,0.007398,
689.804,0.0069422,
688.411,0.010233,
687.019,0.010571,
685.627,0.0072409,
684.234,0.0068927,
682.842,0.0079451,
681.450,0.010546,
680.057,0.00855,
678.665,0.0073428,
677.273,0.0075326,
675.880,0.0085794,
674.488,0.0093081,
673.096,0.0094969,
671.703,0.010222,
670.311,0.012174,
668.919,0.015921,
667.526,0.0145,
666.134,0.013234,
664.742,0.013397,
663.349,0.015053,
661.957,0.015407,
660.565,0.012749,
659.173,0.011354,
657.780,0.012492,
656.388,0.018732,
654.996,0.017006,
653.603,0.015087,
652.211,0.018414,
650.819,0.023269,
649.426,0.027397,
648.034,0.027373,
646.642,0.035309,
645.249,0.046916,
643.857,0.060167,
642.465,0.075722,
641.072,0.093447,
639.680,0.11746,
638.288,0.14452,
636.895,0.17206,
635.503,0.18359,
634.111,0.1877,
632.718,0.18554,
631.326,0.17189,
629.934,0.15367,
628.541,0.13082,
627.149,0.10513,
625.757,0.084883,
624.364,0.071845,
622.972,0.058922,
621.580,0.047667,
620.187,0.039257,
618.795,0.036428,
617.403,0.033794,
616.010,0.028992,
614.618,0.025951,
613.226,0.025187,
611.833,0.030408,
610.441,0.027691,
609.049,0.022226,
607.656,0.02206,
606.264,0.022595,
604.872,0.023285,
603.479,0.019468,
602.087,0.016844,
600.695,0.015318,
599.302,0.015682,
597.910,0.014173,
596.518,0.010153,
595.125,0.0070099,
593.733,0.007052,
592.341,0.013034,
590.948,0.012042,
589.556,0.00931,
588.164,0.0068229,
586.771,0.0081236,
585.379,0.01004,
583.987,0.0057998,
582.594,0.0046986,
581.202,0.0058173,
579.810,0.0085694,
578.418,0.0093836,
577.025,0.0081641,
575.633,0.0071652,
574.241,0.0075555,
572.848,0.010205,
571.456,0.0096047,
570.064,0.0089807,
568.671,0.01026,
567.279,0.014148,
565.887,0.017795,
564.494,0.013682,
563.102,0.013565,
561.710,0.016197,
560.317,0.015924,
558.925,0.014669,
557.533,0.01227,
556.140,0.010192,
554.748,0.0090012,
553.356,0.0095076,
551.963,0.0081727,
550.571,0.0065724,
549.179,0.0061068,
547.786,0.0072234,
546.394,0.00892,
545.002,0.0059869,
543.609,0.0044843,
542.217,0.0044311,
540.825,0.0064169,
539.432,0.0072158,
538.040,0.0055669,
536.648,0.0051664,
535.255,0.005608,
533.863,0.0079257,
532.471,0.0073427,
531.078,0.0052159,
529.686,0.0051532,
528.294,0.0073118,
526.901,0.011857,
525.509,0.00944,
524.117,0.0070491,
522.724,0.0062254,
521.332,0.0082207,
519.940,0.010052,
518.547,0.0062583,
517.155,0.0064961,
515.763,0.0095966,
514.370,0.010331,
512.978,0.010239,
511.586,0.0089976,
510.193,0.007946,
508.801,0.0078294,
507.409,0.010438,
506.016,0.010336,
504.624,0.0087084,
503.232,0.0053462,
501.840,0.0060363,
500.447,0.011041,
499.055,0.0063961,
497.663,0.0025472,
496.270,0.0031465,
494.878,0.0054735,
493.486,0.0078136,
492.093,0.0050591,
490.701,0.003889,
489.309,0.0041521,
487.916,0.0059991,
486.524,0.0072057,
485.132,0.0068967,
483.739,0.0055896,
482.347,0.004579,
480.955,0.0075964,
479.562,0.0084593,
478.170,0.0074858,
476.778,0.0074071,
475.385,0.0076898,
473.993,0.0085674,
472.601,0.0094253,
471.208,0.010035,
469.816,0.009074,
468.424,0.01028,
467.031,0.013411,
465.639,0.011272,
464.247,0.0098867,
462.854,0.011046,
461.462,0.012639,
460.070,0.013988,
458.677,0.011631,
457.285,0.010336,
455.893,0.010134,
454.500,0.010435,
453.108,0.010113,
451.716,0.0079318,
450.323,0.0082522,
448.931,0.0098607,
447.539,0.011242,
446.146,0.012653,
444.754,0.014102,
443.362,0.012772,
441.969,0.01181,
440.577,0.014905,
439.185,0.015299,
437.792,0.013741,
436.400,0.013209,
435.008,0.013442,
433.615,0.015077,
432.223,0.012364,
430.831,0.0085368,
429.438,0.0099053,
428.046,0.011549,
426.654,0.013495,
425.261,0.011187,
423.869,0.0090284,
422.477,0.0099138,
421.085,0.0098533,
419.692,0.0091641,
418.300,0.0088929,
416.908,0.0095587,
415.515,0.011981,
414.123,0.01382,
412.731,0.015072,
411.338,0.012544,
409.946,0.010962,
408.554,0.010518,
407.161,0.013967,
405.769,0.016842,
404.377,0.013589,
402.984,0.013051,
401.592,0.014702,
400.200,0.020153,
398.807,0.023811,
397.415,0.022022,
396.023,0.021394,
394.630,0.021455,
393.238,0.031345,
391.846,0.037978,
390.453,0.038946,
389.061,0.047471,
387.669,0.059032,
386.276,0.072307,
384.884,0.084099,
383.492,0.093994,
382.099,0.10589,
380.707,0.11779,
379.315,0.12681,
377.922,0.12894,
376.530,0.12428,
375.138,0.11573,
373.745,0.10596,
372.353,0.094074,
370.961,0.080344,
369.568,0.065154,
368.176,0.055029,
366.784,0.046529,
365.391,0.041251,
363.999,0.035956,
362.607,0.030652,
361.214,0.026683,
359.822,0.023845,
358.430,0.023543,
357.037,0.022866,
355.645,0.021977,
354.253,0.019262,
352.860,0.017268,
351.468,0.016849,
350.076,0.016002,
348.683,0.014939,
347.291,0.013564,
345.899,0.01335,
344.506,0.015357,
343.114,0.014323,
341.722,0.011939,
340.330,0.013443,
338.937,0.014829,
337.545,0.015997,
336.153,0.01571,
334.760,0.014782,
333.368,0.014814,
331.976,0.015547,
330.583,0.01756,
329.191,0.016863,
327.799,0.014973,
326.406,0.016975,
325.014,0.018701,
323.622,0.0199,
322.229,0.018439,
320.837,0.015675,
319.445,0.017037,
318.052,0.018401,
316.660,0.019756,
315.268,0.018975,
313.875,0.017038,
312.483,0.017938,
311.091,0.019277,
309.698,0.021475,
308.306,0.020548,
306.914,0.017673,
305.521,0.016208,
304.129,0.015659,
302.737,0.017499,
301.344,0.017421,
299.952,0.015917,
298.560,0.014267,
297.167,0.013236,
295.775,0.014652,
294.383,0.014613,
292.990,0.013239,
291.598,0.011411,
290.206,0.010286,
288.813,0.013722,
287.421,0.014991,
286.029,0.013711,
284.636,0.012725,
283.244,0.012104,
281.852,0.014715,
280.459,0.015269,
279.067,0.012574,
277.675,0.01214,
276.282,0.012702,
274.890,0.01444,
273.498,0.015887,
272.105,0.016672,
270.713,0.01548,
269.321,0.013023,
267.928,0.015782,
266.536,0.018042,
265.144,0.016626,
263.751,0.016933,
262.359,0.018868,
260.967,0.01809,
259.575,0.016869,
258.182,0.017066,
256.790,0.016863,
255.398,0.016085,
254.005,0.017182,
252.613,0.019063,
